!
! Plot #:  1     Plot title:  
!
!       XST    XEND      Line Loc       F(cont)     EW(mA)      %E  FWHM(km/s) FWHM(km/s) Sig(A)                      Plot    Line Lam   Line ID
   3760.736   3761.138   3760.921    1.0019E+00      15.83    1.00     10.78     11.95     0.064     0.307     3.016     1       0.000   
   3763.245   3763.696   3763.466    9.9202E-01      19.91    0.85     16.69     13.30     0.072    -0.392     2.486     1       0.000   
   3767.176   3767.482   3767.294    9.0902E-01       5.25    2.43     11.29      8.19     0.044    -0.420    -4.030     1       0.000   
   3779.873   3780.162   3779.967    9.9610E-01      10.77    1.06      7.34      9.71     0.052     0.329     1.084     1       0.000   
   3792.254   3792.608   3792.436    9.5605E-01      18.36    0.73     10.15     12.43     0.067    -0.441     2.341     1       0.000   
   3807.321   3807.835   3807.590    9.6885E-01      47.95    0.40     18.80     18.85     0.103     0.094     2.384     1       0.000   
   3851.969   3852.371   3852.144    9.9009E-01      10.23    1.46      6.50     14.16     0.078     0.819     2.031     1       0.000   
   3865.251   3865.573   3865.441    9.8935E-01      13.25    0.94      7.18     14.07     0.078    -0.891     3.120     1       0.000   
   3865.573   3865.943   3865.724    9.9223E-01      12.13    1.23     13.14     13.50     0.075    -0.433     1.870     1       0.000   
   3868.201   3869.117   3868.599    9.8298E-01     103.09    0.33     24.52     25.90     0.143     0.239     2.320     1       0.000   
   3883.052   3883.551   3883.265    9.5841E-01      33.23    0.56     11.63     12.72     0.071     0.397     2.568     1       0.000   
   3912.801   3913.396   3913.065    1.0034E+00      55.29    0.41     15.81     17.69     0.099     0.634     2.787     1       0.000   
   3920.206   3920.624   3920.365    9.8464E-01      37.87    0.40     12.60     13.84     0.078     0.192     2.510     1       0.000   
   3925.391   3925.745   3925.530    9.6366E-01       9.51    1.45      8.20     12.19     0.068     0.153     2.729     1       0.000   
   3927.160   3928.463   3927.747    9.3574E-01      76.20    0.66     35.80     51.44     0.289     0.596     2.384     1       0.000   
   3929.524   3929.910   3929.690    9.7552E-01      15.34    0.96      7.30     14.65     0.082     0.320     2.237     1       0.000   
   3945.943   3946.345   3946.134    9.8324E-01      27.70    0.51     12.98      9.26     0.052     0.107     0.367     1       0.000   
   3955.213   3955.744   3955.464    9.7094E-01      51.67    0.37     13.93     13.28     0.075     0.242     2.521     1       0.000   
   3965.326   3966.324   3965.813    8.8615E-01     135.24    0.26     28.98     26.39     0.150    -0.004     2.722     1       0.000   
   3983.627   3984.077   3983.823    9.8218E-01      29.75    0.55     11.89     12.23     0.070     0.681     2.866     1       0.000   
   4009.364   4011.631   4010.439    9.7326E-01     213.13    0.39     47.29     73.48     0.421     0.112     2.837     1       0.000   
   4024.817   4025.701   4025.203    9.6299E-01      37.44    0.91     24.86     33.54     0.193     0.151     2.151     1       0.000   
   4025.669   4028.725   4027.201    9.3360E-01     500.22    0.21     57.90     95.54     0.550    -0.261     2.842     1       0.000   
   4070.597   4071.224   4070.886    9.9195E-01     111.00    0.18     31.43     23.38     0.136    -0.059     1.705     1       0.000   
   4073.010   4073.508   4073.276    1.0063E+00      73.94    0.23     13.60     13.21     0.077    -0.113     2.704     1       0.000   
   4076.685   4077.345   4076.993    1.0235E+00      94.40    0.23     14.47     17.03     0.099     0.465     3.662     1       0.000   
   4079.715   4080.198   4079.946    1.0218E+00      32.09    0.58     13.81     14.63     0.085    -0.776     2.980     1       0.000   
   4084.830   4085.216   4085.021    1.0233E+00      22.89    0.63     10.88     11.51     0.067    -0.207     2.946     1       0.000   
   4086.036   4086.487   4086.239    1.0170E+00      36.10    0.45     14.97     12.79     0.075     0.023     2.634     1       0.000   
   4088.069   4088.536   4088.282    1.0210E+00      22.08    0.81     16.45     13.40     0.078     0.147     2.425     1       0.000   
   4089.726   4090.224   4089.988    1.0140E+00      61.47    0.29     13.58     13.01     0.076     0.012     2.448     1       0.000   
   4090.224   4090.707   4090.415    1.0146E+00      50.25    0.34     15.14     13.85     0.081     0.068     2.464     1       0.000   
   4093.859   4094.245   4094.041    9.8559E-01      32.71    0.43     13.87     14.40     0.084    -0.461     2.848     1       0.000   
   4096.632   4096.954   4096.762    9.4973E-01      14.50    0.85     11.65     10.31     0.060     0.327     2.608     1       0.000   
   4098.064   4098.643   4098.382    9.1307E-01      31.71    0.67     14.39     14.85     0.087    -0.156     2.260     1    4098.381   O2(2s2_2p2(3Pe)3d_4De[3/2]-2s2_2p2(3Pe)3p_4Po[1/2])
   4117.023   4117.554   4117.263    1.0141E+00      53.81    0.36     13.55     16.71     0.098     0.700     3.087     1       0.000   
   4120.117   4120.664   4120.355    1.0216E+00      75.89    0.26     16.17     15.43     0.091     0.107     2.666     1       0.000   
   4133.730   4134.149   4133.935    9.9463E-01      42.47    0.35     14.02     12.80     0.076    -0.006     2.445     1       0.000   
   4144.005   4145.935   4144.961    9.5326E-01     302.02    0.22     44.22     66.06     0.391     0.062     2.656     1       0.000   
   4154.257   4154.643   4154.431    9.8259E-01      44.84    0.30     13.28     11.72     0.070    -0.351     2.204     1       0.000   
   4186.289   4186.884   4186.592    1.0019E+00      43.18    0.51     13.85     14.77     0.088    -0.291     3.154     1       0.000   
   4190.631   4191.194   4190.927    9.9183E-01      48.75    0.42     12.85     13.88     0.083     0.001     2.254     1       0.000   
   4254.502   4255.516   4254.949    9.8808E-01      84.09    0.44     12.90     39.25     0.239     0.475     1.848     1       0.000   
   4268.026   4268.766   4268.320    1.0017E+00      58.76    0.46     31.48     24.66     0.151     0.188     2.230     1       0.000   
   4276.524   4276.975   4276.731    9.8627E-01      30.28    0.54     14.20     11.72     0.072     0.040     1.782     1       0.000   
   4277.667   4278.117   4277.890    1.0004E+00      22.21    0.81     12.93     13.80     0.084    -0.288     2.364     1       0.000   
   4278.358   4278.856   4278.577    1.0085E+00      22.75    0.84     17.00     16.88     0.103    -0.294     2.149     1       0.000   
   4283.930   4284.364   4284.160    9.8332E-01      15.75    1.08     12.68     13.46     0.082    -0.051     2.488     1       0.000   
   4285.988   4286.358   4286.156    9.9159E-01      29.70    0.44     12.67     11.18     0.069     0.174     2.384     1       0.000   
   4295.731   4296.262   4296.014    1.0107E+00      28.22    0.71     19.93     17.05     0.105    -0.175     2.538     1       0.000   
   4304.632   4305.259   4304.957    1.0008E+00      36.27    0.64     13.23     20.26     0.125    -0.718     3.012     1       0.000   
   4318.052   4318.567   4318.317    9.9909E-01      59.87    0.31     13.83     11.85     0.073     0.060     2.386     1       0.000   
   4320.584   4321.147   4320.825    1.0062E+00      73.17    0.27     14.57     15.60     0.096     0.454     3.476     1       0.000   
   4326.728   4327.178   4326.942    9.8145E-01      21.73    0.77     11.67     12.27     0.076     0.439     2.606     1       0.000   
   4333.650   4334.117   4333.878    9.5414E-01      18.96    0.96      8.04     10.74     0.067    -0.845     2.286     1       0.000   
   4337.806   4338.289   4338.042    8.5424E-01      27.83    0.68     12.22     14.02     0.087    -0.042     2.958     1       0.000   
   4346.466   4347.029   4346.748    9.0555E-01      59.92    0.33     14.58     12.20     0.076     0.162     1.671     1       0.000   
   4348.187   4348.830   4348.560    9.4772E-01      54.10    0.42     13.84     19.36     0.120    -0.581     2.834     1       0.000   
   4350.374   4350.921   4350.613    9.8013E-01      99.73    0.17     15.28     13.59     0.085    -0.060     2.603     1       0.000   
   4352.182   4352.761   4352.464    9.7863E-01      67.58    0.31     13.29     15.07     0.094     0.347     2.680     1       0.000   
   4362.450   4362.932   4362.707    1.0178E+00      22.81    0.84     12.99     15.55     0.097    -0.455     2.814     1       0.000   
   4365.683   4366.133   4365.918    1.0062E+00      14.48    1.18     16.53     15.32     0.096    -0.102     2.629     1       0.000   
   4367.876   4368.342   4368.087    9.9946E-01      63.79    0.26     13.24     12.15     0.076     0.080     2.591     1       0.000   
   4370.240   4370.690   4370.462    1.0059E+00      16.23    1.05      8.37      9.97     0.062    -0.710     2.097     1       0.000   
   4387.398   4390.583   4389.061    9.7020E-01     406.22    0.27     47.29     79.15     0.497    -0.379     3.355     1       0.000   
   4396.830   4397.521   4397.150    1.0058E+00      31.46    0.82     16.08     17.22     0.108     0.040     2.887     1       0.000   
   4415.812   4416.423   4416.107    9.9386E-01      96.60    0.20     14.59     14.11     0.089     0.177     2.554     1       0.000   
   4417.935   4418.514   4418.191    9.9617E-01      82.93    0.23     15.54     14.42     0.091     0.300     2.630     1       0.000   
   4438.396   4439.233   4438.789    1.0183E+00      90.42    0.33     26.19     25.18     0.160     0.095     2.610     1       0.000   
   4449.211   4449.613   4449.414    9.8970E-01      17.27    0.85      9.74     11.95     0.076     0.244     2.122     1       0.000   
   4453.280   4453.811   4453.579    1.0070E+00      36.20    0.55     13.61     15.59     0.099    -0.307     3.270     1       0.000   
   4471.796   4473.613   4472.765    8.7766E-01     321.08    0.18     44.54     44.31     0.283    -0.067     2.957     1       0.000   
   4482.096   4482.723   4482.430    9.8174E-01      41.85    0.55     20.64     16.68     0.107     0.178     1.992     1       0.000   
   4492.267   4492.701   4492.470    9.9232E-01      17.45    0.97     14.44     14.47     0.093     0.132     2.577     1       0.000   
   4553.565   4554.144   4553.861    1.0168E+00     106.99    0.18     13.34     14.78     0.096    -0.266     3.225     1       0.000   
   4568.777   4569.324   4569.089    1.0065E+00      87.02    0.22     13.84     12.55     0.082     0.013     2.187     1       0.000   
   4575.796   4576.230   4576.003    1.0071E+00      57.06    0.25     13.40     12.50     0.082     0.042     2.421     1       0.000   
   4591.973   4592.487   4592.221    1.0020E+00      72.72    0.25     14.82     13.61     0.089    -0.136     3.000     1       0.000   
   4597.039   4597.667   4597.403    1.0022E+00      71.13    0.31     13.82     18.33     0.120    -0.813     3.463     1       0.000   
   4610.465   4610.980   4610.699    1.0168E+00      38.98    0.47     14.60     15.14     0.100     0.106     2.490     1       0.000   
   4639.812   4640.472   4640.125    1.0116E+00      82.24    0.28     13.22     15.84     0.105    -0.067     3.413     1       0.000   
   4642.755   4643.383   4643.077    1.0058E+00     108.62    0.19     15.35     14.86     0.099    -0.045     2.854     1       0.000   
   4648.423   4649.034   4648.708    9.9776E-01      55.67    0.40     15.24     16.94     0.113     0.145     2.423     1       0.000   
   4650.112   4650.739   4650.412    9.9636E-01     118.79    0.17     15.36     13.81     0.092     0.189     2.768     1       0.000   
   4651.253   4651.752   4651.516    9.9924E-01      38.83    0.48     13.06     14.55     0.097    -0.280     2.869     1       0.000   
   4651.752   4652.412   4652.098    9.9842E-01      74.53    0.32     14.32     15.37     0.102    -0.323     3.146     1       0.000   
   4662.664   4663.258   4662.910    1.0174E+00      86.20    0.23     14.00     14.65     0.098     0.165     2.998     1       0.000   
   4674.804   4675.222   4675.004    1.0006E+00      24.36    0.64     13.71     12.73     0.085    -0.471     2.761     1       0.000   
   4677.216   4677.779   4677.505    1.0093E+00      70.39    0.28     14.24     13.93     0.093    -0.201     2.911     1       0.000   
   4700.010   4700.621   4700.378    1.0295E+00      72.95    0.30     27.72     21.69     0.146    -0.418     2.253     1       0.000   
   4704.294   4704.857   4704.530    1.0101E+00      23.39    0.97     12.63     19.21     0.129     0.582     2.534     1       0.000   
   4706.417   4706.900   4706.631    1.0084E+00      61.67    0.29     15.64     14.07     0.095    -0.016     2.469     1       0.000   
   4713.871   4715.029   4714.473    1.0050E+00     215.06    0.18     38.88     31.88     0.215     0.030     2.472     1       0.000   
   4907.929   4908.396   4908.156    1.0070E+00      35.14    0.50     12.41     14.16     0.099     0.016     2.431     1       0.000   
   4922.643   4924.380   4923.338    9.6773E-01     339.43    0.17     36.63     44.66     0.314     0.589     3.281     1       0.000   
   4925.602   4926.117   4925.861    1.0121E+00      53.99    0.33     12.54     14.27     0.101    -0.076     2.625     1       0.000   
